Frequency (Hz),Level (dB)
43.066406,-11.426544
86.132813,-6.595113
129.199219,-11.731502
172.265625,-12.932707
215.332031,-16.771961
258.398438,-16.127747
301.464844,-16.477831
344.53125,-15.419322
387.597656,-23.232395
430.664063,-27.672918
473.730469,-33.767124
516.796875,-35.552517
559.863281,-39.793743
602.929688,-41.431179
645.996094,-40.711754
689.0625,-42.197098
732.128906,-43.235336
775.195313,-45.024075
818.261719,-45.162411
861.328125,-46.488762
904.394531,-45.080132
947.460938,-45.496128
990.527344,-44.842449
1033.59375,-45.858475
1076.660156,-45.516094
1119.726563,-45.062492
1162.792969,-42.652534
1205.859375,-38.997837
1248.925781,-37.393612
1291.992188,-39.629005
1335.058594,-40.486591
1378.125,-44.423557
1421.191406,-46.152554
1464.257813,-49.439518
1507.324219,-51.301262
1550.390625,-52.938217
1593.457031,-53.457729
1636.523438,-54.267303
1679.589844,-55.443356
1722.65625,-55.032257
1765.722656,-55.3297
1808.789063,-53.769001
1851.855469,-51.992226
1894.921875,-50.604263
1937.988281,-48.986198
1981.054688,-48.234955
2024.121094,-49.70232
2067.1875,-50.737736
2110.253906,-52.65723
2153.320313,-52.767338
2196.386719,-53.706577
2239.453125,-55.198261
2282.519531,-56.737305
2325.585938,-57.364578
2368.652344,-58.015121
2411.71875,-58.833008
2454.785156,-58.606468
2497.851563,-59.468605
2540.917969,-58.76733
2583.984375,-58.73917
2627.050781,-59.458828
2670.117188,-59.879116
2713.183594,-60.226563
2756.25,-59.362087
2799.316406,-58.291363
2842.382813,-57.336468
2885.449219,-54.735374
2928.515625,-53.846348
2971.582031,-54.433609
3014.648438,-57.632172
3057.714844,-60.902985
3100.78125,-62.510998
3143.847656,-62.811642
3186.914063,-62.368259
3229.980469,-62.038166
3273.046875,-61.734627
3316.113281,-60.447327
3359.179688,-59.616863
3402.246094,-58.86982
3445.3125,-58.872524
3488.378906,-58.365078
3531.445313,-57.840225
3574.511719,-58.981434
3617.578125,-58.525253
3660.644531,-59.416267
3703.710938,-61.228279
3746.777344,-63.07478
3789.84375,-64.758728
3832.910156,-65.746536
3875.976563,-66.568634
3919.042969,-66.364029
3962.109375,-66.309311
4005.175781,-65.191101
4048.242188,-66.872322
4091.308594,-66.912651
4134.375,-67.60894
4177.441406,-67.013336
4220.507813,-66.975952
4263.574219,-66.403961
4306.640625,-66.348671
4349.707031,-65.845482
4392.773438,-66.511124
4435.839844,-66.781349
4478.90625,-67.12677
4521.972656,-68.058517
4565.039063,-67.530121
4608.105469,-67.603683
4651.171875,-66.934769
4694.238281,-65.865158
4737.304688,-65.295418
4780.371094,-64.557243
4823.4375,-64.753838
4866.503906,-65.635513
4909.570313,-65.21167
4952.636719,-65.838631
4995.703125,-66.767464
5038.769531,-68.227257
5081.835938,-69.912354
5124.902344,-70.917
5167.96875,-71.292725
5211.035156,-71.74939
5254.101563,-70.586449
5297.167969,-70.834511
5340.234375,-70.428986
5383.300781,-70.423264
5426.367188,-69.735245
5469.433594,-70.229668
5512.5,-68.920746
5555.566406,-68.967438
5598.632813,-68.704247
5641.699219,-68.048607
5684.765625,-69.122826
5727.832031,-68.959641
5770.898438,-69.717766
5813.964844,-69.934708
5857.03125,-71.099358
5900.097656,-70.718246
5943.164063,-70.867226
5986.230469,-69.883217
6029.296875,-69.499557
6072.363281,-69.520805
6115.429688,-69.427704
6158.496094,-69.732193
6201.5625,-69.088753
6244.628906,-70.186241
6287.695313,-70.119049
6330.761719,-71.107948
6373.828125,-71.355286
6416.894531,-71.301735
6459.960938,-71.747551
6503.027344,-71.965843
6546.09375,-72.980545
6589.160156,-72.496941
6632.226563,-72.290016
6675.292969,-70.569122
6718.359375,-70.048225
6761.425781,-69.573547
6804.492188,-69.020821
6847.558594,-68.200722
6890.625,-68.650909
6933.691406,-68.282692
6976.757813,-68.413445
7019.824219,-67.033356
7062.890625,-65.247375
7105.957031,-65.1642
7149.023438,-65.983788
7192.089844,-65.913116
7235.15625,-65.577347
7278.222656,-65.328644
7321.289063,-65.113777
7364.355469,-65.090652
7407.421875,-65.570824
7450.488281,-66.538399
7493.554688,-66.464104
7536.621094,-66.745354
7579.6875,-66.85955
7622.753906,-66.580963
7665.820313,-67.06144
7708.886719,-67.803734
7751.953125,-69.106506
7795.019531,-68.826721
7838.085938,-69.289299
7881.152344,-69.246513
7924.21875,-69.273849
7967.285156,-69.247154
8010.351563,-69.590012
8053.417969,-69.423149
8096.484375,-70.096703
8139.550781,-69.909637
8182.617188,-70.243393
8225.683594,-70.197372
8268.75,-70.577049
8311.816406,-71.140945
8354.882813,-70.576965
8397.949219,-70.83783
8441.015625,-69.088524
8484.082031,-69.65451
8527.148438,-69.139221
8570.214844,-70.008492
8613.28125,-71.851089
8656.347656,-71.470047
8699.414063,-71.489021
8742.480469,-71.89817
8785.546875,-72.712296
8828.613281,-71.890976
8871.679688,-72.352264
8914.746094,-71.35318
8957.8125,-72.835915
9000.878906,-72.016167
9043.945313,-71.697708
9087.011719,-72.186653
9130.078125,-72.516083
9173.144531,-71.226326
9216.210938,-70.710602
9259.277344,-68.362328
9302.34375,-69.098778
9345.410156,-72.013382
9388.476563,-73.447929
9431.542969,-74.620377
9474.609375,-75.751083
9517.675781,-74.978111
9560.742188,-75.448273
9603.808594,-74.306328
9646.875,-74.285881
9689.941406,-75.027214
9733.007813,-75.086853
9776.074219,-75.00985
9819.140625,-75.003555
9862.207031,-74.62236
9905.273438,-75.727547
9948.339844,-76.629456
9991.40625,-77.367607
10034.47266,-77.757553
10077.53906,-78.390862
10120.60547,-78.22142
10163.67188,-79.311111
10206.73828,-79.293327
10249.80469,-80.149673
10292.87109,-79.597992
10335.9375,-79.997856
10379.00391,-79.153511
10422.07031,-78.489609
10465.13672,-77.446236
10508.20313,-76.852936
10551.26953,-76.739975
10594.33594,-76.249023
10637.40234,-76.886818
10680.46875,-77.110596
10723.53516,-77.324951
10766.60156,-78.218269
10809.66797,-78.837059
10852.73438,-78.9039
10895.80078,-78.433273
10938.86719,-78.193039
10981.93359,-78.311676
11025,-79.609573
11068.06641,-80.199753
11111.13281,-80.390404
11154.19922,-79.458092
11197.26563,-78.440979
11240.33203,-78.315384
11283.39844,-79.031265
11326.46484,-76.827217
11369.53125,-77.83506
11412.59766,-78.182274
11455.66406,-78.959091
11498.73047,-79.775764
11541.79688,-79.540543
11584.86328,-79.32251
11627.92969,-78.540245
11670.99609,-79.492828
11714.0625,-79.453201
11757.12891,-78.056908
11800.19531,-76.731361
11843.26172,-76.767067
11886.32813,-77.578499
11929.39453,-77.623917
11972.46094,-75.819885
12015.52734,-73.802574
12058.59375,-73.490318
12101.66016,-72.68499
12144.72656,-72.918335
12187.79297,-73.623634
12230.85938,-74.75798
12273.92578,-76.030922
12316.99219,-76.784897
12360.05859,-78.201164
12403.125,-79.297989
12446.19141,-80.680023
12489.25781,-81.581284
12532.32422,-81.552841
12575.39063,-82.017143
12618.45703,-80.192871
12661.52344,-80.150505
12704.58984,-79.92691
12747.65625,-78.847542
12790.72266,-77.992844
12833.78906,-77.315407
12876.85547,-76.605118
12919.92188,-75.620918
12962.98828,-74.559441
13006.05469,-74.789436
13049.12109,-74.426003
13092.1875,-75.800194
13135.25391,-77.259506
13178.32031,-78.017944
13221.38672,-78.22876
13264.45313,-79.419159
13307.51953,-79.419968
13350.58594,-78.876762
13393.65234,-80.063332
13436.71875,-80.65361
13479.78516,-80.479889
13522.85156,-80.300308
13565.91797,-79.71595
13608.98438,-80.436935
13652.05078,-80.261795
13695.11719,-80.194855
13738.18359,-80.063034
13781.25,-79.345329
13824.31641,-79.980415
13867.38281,-80.112831
13910.44922,-80.637108
13953.51563,-81.681824
13996.58203,-81.32
14039.64844,-81.938004
14082.71484,-82.519554
14125.78125,-82.409538
14168.84766,-82.422447
14211.91406,-82.641464
14254.98047,-82.66642
14298.04688,-82.239464
14341.11328,-82.043762
14384.17969,-81.646706
14427.24609,-82.141518
14470.3125,-82.47567
14513.37891,-83.113983
14556.44531,-82.957428
14599.51172,-82.446838
14642.57813,-82.358841
14685.64453,-82.430611
14728.71094,-82.970345
14771.77734,-82.869202
14814.84375,-82.132324
14857.91016,-83.100349
14900.97656,-83.656837
14944.04297,-83.580322
14987.10938,-83.723396
15030.17578,-83.505234
15073.24219,-83.093498
15116.30859,-81.891289
15159.375,-81.434601
15202.44141,-81.284592
15245.50781,-80.442749
15288.57422,-79.8974
15331.64063,-80.543449
15374.70703,-79.891777
15417.77344,-80.007919
15460.83984,-79.927368
15503.90625,-79.908707
15546.97266,-80.197685
15590.03906,-80.733841
15633.10547,-81.096107
15676.17188,-81.587852
15719.23828,-82.555328
15762.30469,-83.248276
15805.37109,-82.938171
15848.4375,-82.260162
15891.50391,-81.917381
15934.57031,-80.56427
15977.63672,-78.896812
16020.70313,-78.859863
16063.76953,-78.746719
16106.83594,-79.047974
16149.90234,-79.391251
16192.96875,-81.356514
16236.03516,-82.085587
16279.10156,-81.894409
16322.16797,-81.183708
16365.23438,-80.162476
16408.30078,-79.175522
16451.36719,-79.365654
16494.43359,-80.473114
16537.5,-81.362381
16580.56641,-82.695602
16623.63281,-84.002846
16666.69922,-83.425079
16709.76563,-82.520882
16752.83203,-82.075035
16795.89844,-80.445549
16838.96484,-80.758072
16882.03125,-80.424652
16925.09766,-81.236877
16968.16406,-80.894859
17011.23047,-81.075661
17054.29688,-80.91964
17097.36328,-81.928284
17140.42969,-82.301239
17183.49609,-82.575378
17226.5625,-82.957458
17269.62891,-83.606079
17312.69531,-83.467644
17355.76172,-82.533699
17398.82813,-81.929497
17441.89453,-80.865433
17484.96094,-80.544357
17528.02734,-79.350967
17571.09375,-78.705612
17614.16016,-78.509155
17657.22656,-78.996071
17700.29297,-79.305527
17743.35938,-80.215317
17786.42578,-80.877052
17829.49219,-81.527351
17872.55859,-81.475845
17915.625,-81.412407
17958.69141,-81.757187
18001.75781,-81.509583
18044.82422,-82.262756
18087.89063,-82.80291
18130.95703,-82.69014
18174.02344,-82.445686
18217.08984,-81.743179
18260.15625,-81.527153
18303.22266,-80.971481
18346.28906,-80.441902
18389.35547,-79.489342
18432.42188,-79.000252
18475.48828,-79.72393
18518.55469,-79.757317
18561.62109,-80.162628
18604.6875,-80.734756
18647.75391,-80.461967
18690.82031,-81.080963
18733.88672,-82.518448
18776.95313,-83.319176
18820.01953,-84.619781
18863.08594,-84.420441
18906.15234,-84.419395
18949.21875,-84.841476
18992.28516,-86.169731
19035.35156,-86.060745
19078.41797,-85.470085
19121.48438,-85.181549
19164.55078,-84.704727
19207.61719,-85.156555
19250.68359,-84.962128
19293.75,-85.051743
19336.81641,-84.450584
19379.88281,-83.578125
19422.94922,-82.430702
19466.01563,-81.252701
19509.08203,-80.398544
19552.14844,-79.373726
19595.21484,-79.045822
19638.28125,-78.970512
19681.34766,-78.5289
19724.41406,-78.238564
19767.48047,-77.662552
19810.54688,-77.484116
19853.61328,-77.241928
19896.67969,-77.418709
19939.74609,-77.914085
19982.8125,-78.068718
20025.87891,-78.964333
20068.94531,-78.717064
20112.01172,-78.25486
20155.07813,-77.969254
20198.14453,-78.004044
20241.21094,-77.744499
20284.27734,-78.071106
20327.34375,-77.857536
20370.41016,-77.80616
20413.47656,-77.661598
20456.54297,-77.415741
20499.60938,-77.01873
20542.67578,-76.937454
20585.74219,-77.241341
20628.80859,-77.999496
20671.875,-78.380043
20714.94141,-79.481194
20758.00781,-80.928772
20801.07422,-82.443565
20844.14063,-83.226967
20887.20703,-83.772003
20930.27344,-84.207474
20973.33984,-84.508492
21016.40625,-85.717072
21059.47266,-87.525345
21102.53906,-89.296692
21145.60547,-91.401955
21188.67188,-94.474243
21231.73828,-97.553925
21274.80469,-101.488792
21317.87109,-104.455864
21360.9375,-107.708961
21404.00391,-110.71357
21447.07031,-114.512955
21490.13672,-117.664261
21533.20313,-120.81295
21576.26953,-124.736023
21619.33594,-129.146957
21662.40234,-134.231598
21705.46875,-140.362015
21748.53516,-147.278854
21791.60156,-151.954178
21834.66797,-157.833694
21877.73438,-156.772781
21920.80078,-155.188828
21963.86719,-152.528183
22006.93359,-155.658936
